P-impedance image
1 100 130 1 0.000000 0.000000 -1.000000 1.000000 1.000000 -1.000000 0.000000
VValue
6758.56
6809.11
6864.14
6944.22
7032.08
6878.46
6912.33
6936.4
6962.95
6946.09
6930.45
6897.63
6853.01
6729.42
6663.12
6588.12
6505.26
6415.31
6319.06
5841.08
5706.27
5674.79
5559.7
5434.73
5341.3
5232.66
5150.92
5085.19
5053.48
5041.53
5094.46
5223.66
5415.15
5624.82
5849.04
6110.71
6351.01
6584.84
6800.89
7003.31
7190.56
7362.06
7517.9
7640.77
7762.22
7433.97
7337.78
7252.76
7124.83
6978.68
6779.69
6611.43
6405.69
6166.97
5913.62
5631.33
5329.59
5022.34
4723.21
4498.0
4580.41
4740.01
4911.96
5079.04
5232.53
5349.23
5460.27
5539.86
5710.98
5840.54
5987.35
6149.58
6320.97
6489.38
6711.86
6870.62
7009.98
7144.95
7270.6
7445.12
7545.8
7630.15
7695.06
7725.07
7682.11
7666.59
7627.73
7566.97
7486.95
7399.42
7211.89
7090.56
6963.73
6834.54
6706.66
6585.0
6476.53
6390.47
6336.17
6317.82
6721.36
6778.04
6843.42
6934.54
7033.1
7132.99
6952.34
6982.74
6999.3
7013.79
6982.21
6952.91
6907.7
6783.5
6715.37
6638.49
6553.76
6461.99
6363.93
6260.34
5855.8
5739.64
5626.33
5506.34
5413.32
5307.18
5226.5
5161.51
5111.48
5094.28
5143.33
5283.36
5489.19
5710.73
5942.93
6184.22
6449.62
6678.83
6905.54
7116.85
7302.55
7470.85
7608.57
7732.7
7849.51
7546.11
7461.79
7387.26
7271.09
7135.94
6979.03
6763.59
6558.02
6361.18
6101.06
5820.74
5526.76
5230.81
4959.92
4790.75
4804.65
4921.69
5074.41
5232.06
5368.25
5488.59
5573.13
5642.11
5757.32
5872.11
6020.22
6172.42
6355.88
6571.19
6732.83
6892.4
7049.12
7174.07
7301.46
7465.95
7569.98
7657.8
7713.91
7709.27
7718.87
7702.17
7659.84
7593.74
7506.98
7320.56
7220.15
7091.5
6956.72
6818.54
6680.1
6545.95
6423.54
6325.04
6238.57
6234.17
6696.75
6760.22
6848.59
6939.97
7049.42
7158.09
7248.52
7061.67
7065.1
7068.07
7066.11
7017.43
6973.42
6849.02
6778.87
6700.18
6613.88
6520.79
6421.64
6317.16
5936.5
5824.18
5714.97
5597.93
5492.54
5413.58
5339.18
5255.27
5209.52
5217.1
5284.44
5421.36
5615.75
5838.47
6073.32
6322.59
6582.42
6812.71
7028.51
7238.11
7418.81
7591.65
7707.83
7833.22
7974.07
7660.5
7589.35
7536.2
7435.28
7315.17
7172.3
6973.51
6778.57
6587.89
6336.57
6069.6
5792.66
5525.4
5297.82
5156.04
5129.6
5193.0
5297.41
5433.26
5568.6
5677.55
5720.24
5737.78
5799.05
5914.05
6065.17
6239.77
6409.48
6604.44
6764.84
6923.39
7079.69
7211.05
7371.23
7488.72
7594.27
7673.86
7729.25
7743.96
7754.81
7737.38
7692.2
7621.63
7520.29
7347.97
7235.35
7101.98
6962.21
6818.32
6672.81
6482.28
6357.26
6256.13
6200.11
6202.29
6692.99
6763.32
6861.76
6976.98
7084.43
7200.59
7307.83
7390.6
7160.37
7166.04
7133.38
7113.01
7047.23
6989.43
6852.48
6772.1
6684.61
6590.79
6491.34
6386.93
6033.93
5927.29
5824.34
5706.38
5610.23
5526.19
5485.71
5399.6
5366.55
5399.19
5475.8
5608.85
5780.28
6001.88
6233.76
6491.65
6716.71
6965.69
7178.3
7371.94
7545.2
7708.94
7822.42
7940.18
8085.43
7790.27
7785.27
7668.9
7614.4
7513.5
7389.28
7212.23
7055.3
6850.5
6611.21
6359.99
6101.86
5860.08
5659.38
5526.27
5474.56
5494.95
5565.8
5665.33
5782.55
5915.6
5886.14
5858.23
5832.79
5983.2
6139.94
6306.45
6464.9
6652.49
6808.41
6963.48
7117.83
7255.85
7397.05
7511.0
7606.38
7695.56
7732.64
7772.83
7785.16
7767.69
7720.81
7647.33
7491.32
7378.56
7256.76
7122.22
6981.53
6780.8
6640.28
6502.34
6373.46
6267.49
6209.3
6215.78
6718.94
6795.13
6901.13
7024.38
7140.21
7261.76
7371.2
7454.44
7530.8
7593.91
7239.4
7208.15
7150.35
7119.06
6934.61
6852.79
6764.59
6670.72
6571.82
6458.14
6147.87
6047.13
5927.47
5837.63
5755.52
5675.14
5659.59
5546.13
5552.4
5603.44
5689.25
5834.44
5972.66
6182.73
6415.95
6647.84
6894.59
7132.35
7339.49
7526.23
7691.12
7816.81
7942.16
8050.78
8180.41
7923.87
7886.91
7886.36
7832.13
7726.58
7613.58
7484.8
7332.71
7141.61
6913.88
6675.42
6430.93
6204.84
6016.64
5883.03
5811.9
5799.13
5832.37
5883.09
5967.42
6032.84
6039.73
6033.6
6031.17
6113.86
6256.79
6397.85
6542.76
6715.44
6862.93
7010.77
7159.29
7298.5
7419.91
7528.46
7620.41
7683.05
7748.32
7790.38
7804.36
7787.84
7741.05
7673.11
7522.04
7410.19
7220.76
7092.29
6959.01
6823.29
6687.58
6555.54
6433.9
6335.98
6282.85
6287.51
6777.65
6857.95
6967.63
7094.83
7227.04
7340.45
7449.76
7539.0
7599.24
7652.98
7696.8
7296.14
7257.26
7219.37
7135.98
6940.41
6852.1
6758.97
6661.55
6562.33
6453.02
6342.15
6066.28
5981.63
5911.16
5840.57
5797.19
5734.11
5754.37
5820.27
5912.58
6062.92
6176.52
6380.8
6600.79
6836.15
7083.99
7290.75
7505.68
7683.99
7839.11
7948.43
8063.46
8189.84
8275.38
8057.35
8038.63
8049.51
7978.52
7936.8
7866.34
7763.71
7631.22
7444.53
7238.87
7000.61
6761.87
6542.12
6357.33
6218.84
6131.29
6091.92
6092.09
6123.78
6148.33
6184.82
6215.3
6227.02
6262.51
6289.57
6391.0
6509.16
6635.84
6791.67
6926.99
7063.14
7199.81
7332.89
7430.03
7529.16
7623.22
7684.28
7748.9
7791.56
7807.15
7792.92
7748.67
7638.5
7547.47
7371.34
7256.51
7134.77
7009.18
6882.34
6757.15
6637.76
6531.09
6448.4
6403.74
6404.36
6862.65
6945.21
7055.08
7182.59
7316.2
7431.69
7539.04
7620.58
7672.36
7714.1
7747.08
7775.23
7342.07
7286.79
7239.47
7148.53
7033.05
6935.58
6837.69
6653.76
6550.12
6445.08
6213.06
6137.96
6073.92
6018.13
5987.05
5932.47
5965.96
6041.57
6138.2
6292.18
6383.13
6580.93
6794.86
7015.01
7247.56
7470.12
7669.78
7838.79
7981.69
8078.62
8182.52
8291.18
8367.29
8186.14
8184.65
8180.49
8171.96
8160.63
8124.99
8054.72
7943.72
7768.84
7566.88
7327.13
7079.57
6859.44
6673.52
6529.14
6428.31
6368.2
6341.83
6335.7
6340.34
6382.94
6399.62
6421.06
6460.74
6478.18
6535.7
6632.45
6735.16
6883.98
6999.19
7120.75
7242.13
7361.05
7474.64
7505.13
7595.47
7671.29
7732.32
7773.7
7784.59
7774.01
7755.26
7647.96
7565.87
7398.55
7293.74
7182.69
7068.64
6954.55
6843.66
6740.33
6650.84
6583.6
6547.12
6545.17
6962.0
7045.14
7152.74
7277.59
7409.86
7536.83
7628.96
7700.44
7745.69
7771.43
7793.5
7812.48
7830.41
7361.99
7298.87
7254.92
7131.49
7022.21
6931.34
6753.63
6656.57
6558.19
6368.53
6310.69
6255.08
6207.3
6181.44
6135.04
6178.95
6261.61
6396.91
6515.75
6585.61
6776.85
6982.8
7195.96
7414.02
7644.68
7814.46
7984.74
8090.67
8203.43
8297.46
8387.33
8453.04
8305.44
8335.21
8332.51
8348.93
8365.58
8377.42
8348.26
8259.7
8092.48
7871.33
7609.74
7368.4
7145.72
6958.74
6810.66
6700.93
6626.16
6601.08
6553.44
6544.75
6578.15
6591.46
6614.41
6653.11
6708.78
6683.11
6745.18
6841.37
6942.57
7078.14
7184.08
7289.49
7381.56
7480.36
7502.39
7579.56
7646.58
7700.69
7738.59
7750.45
7744.82
7741.65
7646.56
7504.29
7422.75
7331.47
7234.36
7134.81
7036.0
6941.33
6854.93
6781.98
6728.38
6699.27
6696.68
7065.04
7147.0
7250.15
7369.07
7495.6
7617.54
7702.31
7764.14
7798.53
7819.48
7832.01
7843.12
7854.06
7866.15
7379.89
7314.76
7179.35
7102.25
7030.25
6860.21
6770.67
6679.74
6540.25
6478.38
6441.48
6414.4
6376.27
6371.27
6389.2
6476.14
6613.37
6728.86
6779.08
6963.21
7160.39
7363.99
7566.67
7785.03
7963.53
8117.76
8218.02
8319.87
8408.63
8475.33
8542.12
8443.63
8443.45
8470.06
8504.4
8540.74
8601.68
8629.57
8556.86
8401.02
8146.39
7861.59
7612.25
7393.53
7212.65
7061.49
6948.45
6865.27
6799.78
6764.13
6744.47
6776.75
6785.66
6781.67
6838.56
6884.46
6876.16
6873.0
6953.55
7038.89
7162.37
7252.59
7329.82
7416.02
7460.63
7504.82
7561.4
7616.38
7660.85
7687.68
7705.59
7734.37
7719.17
7563.49
7510.88
7444.98
7369.67
7288.69
7205.5
7123.32
7045.48
6975.65
6917.9
6876.31
6854.07
6852.36
7165.02
7243.93
7340.42
7449.94
7565.24
7675.18
7764.6
7802.12
7832.07
7848.25
7860.27
7865.38
7870.27
7876.63
7885.98
7394.1
7261.47
7192.04
7120.63
7057.95
6890.7
6899.6
6710.05
6650.95
6615.33
6593.85
6600.45
6584.12
6608.18
6682.02
6817.27
6800.11
6960.28
7136.53
7324.06
7517.1
7709.2
7892.32
8098.31
8217.21
8335.91
8432.36
8546.11
8581.94
8613.46
8641.01
8654.04
8555.85
8595.75
8647.96
8738.18
8878.13
8740.62
8638.35
8326.2
8034.73
7793.81
7591.96
7425.37
7292.3
7190.04
7069.61
7011.87
6970.85
6942.21
6973.88
6977.24
6994.41
7017.64
7053.69
7023.41
6993.79
7059.8
7130.13
7203.3
7266.38
7342.0
7415.3
7478.26
7544.16
7543.69
7589.53
7617.84
7643.88
7689.74
7700.48
7695.85
7554.08
7516.87
7467.49
7409.15
7345.3
7279.24
7214.09
7152.93
7098.87
7055.07
7024.36
7008.79
7009.04
7258.61
7332.85
7420.99
7518.83
7619.77
7714.49
7792.2
7820.59
7849.52
7864.32
7871.26
7879.07
7878.42
7878.99
7883.08
7892.9
7362.67
7307.9
7250.6
7204.22
7103.0
7028.92
6951.79
6822.83
6793.2
6776.72
6776.65
6774.98
6803.91
6876.91
7006.27
6973.46
7127.29
7294.86
7471.97
7653.62
7829.34
8004.68
8189.53
8330.03
8494.76
8524.76
8569.19
8597.99
8622.87
8643.62
8658.24
8672.46
8683.93
8694.42
8705.54
8696.2
8689.08
8575.01
8359.77
8113.14
7897.57
7745.09
7774.26
7659.92
7550.81
7309.66
7214.85
7169.75
7135.43
7138.48
7136.0
7174.78
7189.43
7215.68
7168.52
7125.65
7178.48
7235.16
7278.92
7342.81
7402.18
7459.43
7504.95
7558.83
7541.69
7570.21
7593.38
7612.88
7661.36
7676.18
7574.29
7549.72
7526.66
7493.01
7451.26
7404.35
7355.26
7306.83
7261.74
7222.57
7191.69
7171.1
7162.12
7165.14
7344.75
7413.32
7492.44
7578.22
7664.96
7745.44
7812.39
7861.44
7858.45
7872.2
7876.72
7885.4
7878.91
7872.78
7848.49
7855.46
7842.96
7845.72
7350.54
7298.07
7217.05
7153.91
7097.06
7072.58
6966.84
6953.24
6954.86
6954.15
6988.74
7101.77
7178.8
7132.49
7279.18
7431.77
7597.95
7767.94
7937.23
8128.76
8277.01
8423.83
8555.88
8557.52
8580.25
8606.75
8624.78
8638.17
8655.84
8657.83
8650.97
8630.32
8584.12
8524.85
8475.7
8390.01
8320.35
8139.45
7989.46
7858.83
7845.98
7754.48
7665.6
7579.99
7475.31
7399.89
7350.24
7309.12
7328.19
7346.87
7352.76
7354.25
7363.12
7212.9
7196.75
7241.44
7290.38
7380.55
7469.79
7512.55
7542.6
7586.65
7620.19
7574.19
7589.08
7632.91
7652.17
7566.65
7571.8
7555.18
7543.76
7523.89
7497.29
7466.25
7433.27
7400.74
7370.86
7345.67
7326.89
7315.87
7313.44
7332.21
7439.18
7486.23
7556.6
7631.28
7705.6
7774.1
7831.71
7875.16
7865.01
7876.67
7878.15
7882.56
7849.04
7835.42
7825.85
7826.03
7881.51
7893.67
7943.77
7990.62
7435.8
7385.61
7369.25
7262.9
7271.85
7121.9
7134.47
7175.67
7181.71
7263.94
7334.25
7271.34
7410.04
7558.49
7713.41
7871.16
8027.94
8208.39
8448.77
8504.76
8550.49
8571.3
8586.13
8606.9
8618.88
8625.43
8649.84
8640.8
8618.7
8576.15
8487.1
8344.44
8369.01
8319.4
8231.28
8155.57
8140.45
8159.7
7920.89
7849.66
7780.04
7711.74
7621.94
7546.92
7521.34
7484.08
7393.03
7369.01
7458.61
7364.34
7373.93
7292.58
7319.4
7352.45
7389.75
7469.42
7544.59
7574.83
7591.88
7624.92
7648.03
7598.32
7606.7
7648.04
7664.28
7577.21
7584.37
7572.63
7569.98
7561.45
7548.01
7531.28
7513.12
7495.38
7479.73
7467.61
7460.2
7458.32
7472.41
7485.14
7554.52
7567.65
7629.73
7680.43
7744.39
7803.07
7852.66
7890.49
7915.46
7870.17
7860.96
7866.81
7844.29
7819.15
7796.06
7784.5
7830.55
7859.62
7918.74
7976.42
8027.04
7536.45
7523.64
7428.74
7371.19
7399.65
7311.67
7320.75
7323.41
7426.34
7483.78
7560.15
7653.45
7669.77
7813.28
7958.67
8106.23
8262.52
8464.62
8514.37
8552.42
8573.16
8589.44
8598.52
8605.75
8606.76
8643.05
8626.49
8596.49
8529.68
8462.18
8389.09
8350.4
8303.09
8241.48
8190.83
8171.45
8178.96
8200.37
7955.5
7893.69
7842.64
7768.87
7708.42
7634.09
7577.24
7554.24
7529.01
7508.44
7509.02
7508.87
7441.4
7442.73
7466.09
7493.87
7562.71
7587.9
7645.66
7652.06
7676.05
7690.73
7705.43
7672.29
7682.39
7598.58
7603.77
7610.97
7601.72
7605.35
7605.84
7603.52
7599.37
7594.59
7590.42
7587.95
7588.05
7591.36
7604.56
7618.42
7611.0
7622.72
7671.19
7683.78
7740.42
7782.67
7833.32
7876.06
7908.57
7916.51
7887.55
7871.76
7849.86
7842.97
7804.3
7762.53
7731.04
7761.24
7809.77
7889.08
7986.98
8051.01
8093.33
8146.57
7601.71
7503.64
7446.82
7430.61
7453.24
8072.33
7572.89
7596.73
7666.12
7751.56
7850.05
7907.44
8034.52
8158.14
8430.72
8471.89
8514.77
8552.39
8567.73
8585.52
8592.63
8593.51
8583.66
8637.08
8616.78
8587.48
8515.66
8465.65
8412.25
8365.74
8316.59
8267.38
8228.13
8208.09
8207.83
8222.39
8246.67
8276.37
7972.09
7904.82
7828.8
7795.87
7741.15
7686.44
7715.2
7688.15
7671.57
7639.16
7644.81
7581.69
7580.76
7601.38
7662.02
7637.27
7673.19
7721.42
7727.97
7733.06
7769.3
7789.91
7671.25
7640.05
7642.43
7635.42
7640.47
7648.59
7656.22
7663.26
7670.08
7677.28
7685.46
7695.14
7706.63
7690.44
7712.29
7735.11
7735.34
7685.77
7729.52
7775.56
7821.5
7833.14
7853.25
7975.92
7973.58
7967.36
7906.57
7888.32
7862.35
7849.83
7799.42
7739.89
7696.0
7677.47
7765.52
7880.67
7989.06
8073.69
8115.37
8171.8
8205.21
8149.77
8198.67
8187.31
8187.59
8120.5
8062.5
7705.42
7779.74
8211.43
8250.81
8243.11
8302.23
8360.42
8416.51
8476.63
8521.26
8547.65
8581.03
8601.32
8581.73
8582.01
8574.21
8548.2
8603.76
8576.52
8511.09
8468.93
8430.09
8384.7
8339.58
8297.35
8263.37
8242.65
8237.04
8245.75
8267.04
8298.07
8285.27
8047.82
7999.77
7956.57
7900.0
7846.54
7857.26
7825.22
7788.48
7779.13
7760.8
7767.66
7782.64
7710.23
7725.56
7732.85
7740.35
7798.62
7797.17
7810.98
7828.46
7829.7
7773.37
7777.2
7675.74
7680.71
7689.91
7697.76
7711.22
7726.22
7742.66
7760.57
7779.98
7770.89
7795.04
7808.21
7833.23
7857.74
7881.17
7744.41
7784.19
7825.56
7866.45
7867.68
8001.43
8002.23
7999.69
7992.58
7979.66
7910.94
7884.08
7871.99
7817.68
7747.63
7674.25
7620.6
7743.56
7892.99
8022.22
8114.67
8173.93
8178.54
8158.85
8135.47
8169.81
8150.88
8138.15
8091.15
8049.47
8135.58
8156.21
8191.99
8176.19
8236.68
8296.51
8354.62
8410.05
8461.77
8529.46
8563.64
8580.44
8597.41
8611.04
8565.25
8579.46
8531.14
8607.0
8581.49
8509.93
8476.11
8443.32
8404.23
8364.56
8327.1
8295.46
8273.07
8262.3
8264.84
8282.53
8256.85
8304.72
8343.26
8374.29
8132.35
8058.62
7999.28
7991.9
7948.94
7912.08
7892.26
7872.73
7879.78
7888.85
7856.61
7845.5
7844.77
7844.11
7871.73
7886.17
7883.79
7877.56
7866.7
7888.13
7819.17
7835.15
7730.51
7740.24
7750.82
7769.26
7791.21
7776.28
7820.86
7848.68
7878.58
7897.21
7931.52
7964.5
7995.21
8022.88
7799.17
7835.69
7873.4
7870.22
8024.48
8028.61
8030.08
8027.45
8019.43
7958.65
7939.11
7913.47
7906.52
7859.81
7823.17
7741.86
7718.75
7814.69
7955.07
8088.55
8190.36
8218.81
8203.7
8155.27
8114.74
8115.45
8108.31
8089.3
8083.57
8063.76
8128.0
8123.81
8163.12
8165.07
8226.33
8286.11
8343.59
8398.21
8449.3
8520.16
8570.99
8571.73
8592.75
8542.77
8558.34
8572.24
8570.31
8609.01
8578.75
8555.75
8557.66
8457.34
8424.32
8389.66
8355.55
8324.59
8299.43
8282.48
8227.46
8233.29
8268.17
8341.01
8401.75
8434.06
8436.28
8236.35
8156.92
8096.1
8065.11
8022.04
7993.41
7973.38
7968.34
7978.19
8096.91
8043.18
8003.34
7974.99
7953.04
7968.84
7950.86
7931.79
7920.31
7916.07
7873.04
7873.73
7892.52
7922.44
7922.95
7814.41
7838.8
7868.71
7903.04
7940.66
7963.68
8007.76
8050.56
8090.73
8127.06
8158.64
7850.38
7884.31
7919.24
8043.81
8051.19
8056.91
8059.35
8056.68
8002.34
7987.73
7968.32
7973.12
8001.68
7940.47
7880.04
7830.71
7832.36
7918.27
8038.83
8165.94
8261.69
8263.71
8217.07
8107.8
8081.9
8034.87
8059.46
8035.7
8028.96
8062.34
8087.85
8118.26
8157.8
8150.34
8211.66
8270.82
8327.42
8381.52
8422.3
8476.12
8495.61
8527.36
8554.61
8559.79
8572.56
8580.74
8568.2
8620.43
8624.93
8606.24
8578.51
8543.61
8444.78
8414.45
8382.75
8351.65
8323.23
8268.12
8249.07
8242.15
8278.02
8364.67
8466.79
8485.32
8486.8
8352.57
8297.34
8216.14
8170.22
8132.77
8117.16
8197.75
8172.81
8168.89
8169.68
8162.71
8143.56
8058.52
8027.35
8032.67
8008.86
7995.45
7990.72
7962.01
7990.12
7931.49
7935.56
7946.3
7977.13
7998.29
8047.29
7940.59
7956.7
8008.32
8061.07
8113.38
8163.54
8209.8
8250.82
8285.78
7921.37
7950.94
8112.52
8068.74
8078.47
8086.43
8090.47
8117.84
8034.72
8017.12
8053.54
8038.73
7995.5
7959.57
7944.6
7905.75
7914.26
7993.98
8093.65
8208.58
8292.93
8266.19
8195.24
8074.7
8007.04
7979.44
7986.19
7988.45
7993.96
8002.71
8035.08
8067.15
8132.45
8131.0
8199.05
8248.51
8301.27
8353.7
8406.69
8448.65
8478.4
8513.3
8540.46
8575.63
8577.24
8588.07
8566.79
8584.08
8627.26
8622.58
8599.42
8569.16
8464.96
8438.48
8408.8
8377.47
8329.72
8309.19
8289.34
8274.82
8256.31
8381.22
8479.56
8524.92
8532.54
8509.76
8502.8
8462.15
8424.53
8227.79
8170.42
8246.39
8219.35
8222.1
8244.99
8252.7
8230.55
8171.75
8135.89
8102.73
8049.62
8031.92
8059.68
8028.94
8055.87
8008.81
8013.7
7965.16
7981.65
8026.84
8077.52
8135.5
8171.12
8116.1
8173.83
8230.67
8284.42
8341.22
8386.67
8425.84
8165.22
8175.53
8252.5
8251.4
8149.75
8146.32
8153.83
8151.49
8098.47
8166.9
8091.18
8038.14
8005.7
7989.12
7969.22
7937.99
7956.45
8023.28
8091.57
8166.86
8214.26
8187.05
8103.24
8020.42
7946.17
7911.86
7933.43
7926.78
7929.07
7942.38
7974.49
8020.06
8033.29
8110.32
8171.71
8231.51
8281.77
8333.71
8383.7
8420.78
8458.87
8501.94
8534.06
8573.68
8583.77
8597.05
8604.57
8589.29
8619.06
8645.88
8623.61
8585.43
8531.45
8497.37
8455.8
8397.61
8381.81
8367.11
8359.03
8353.06
8378.09
8447.85
8524.94
8571.6
8579.46
8563.69
8550.69
8495.63
8434.11
8367.5
8298.94
8238.9
8202.13
8214.53
8260.49
8314.94
8263.75
8214.43
8187.44
8156.74
8153.29
8131.18
8102.84
8082.17
8079.69
8102.35
8032.67
8055.15
8100.64
8146.98
8104.24
8199.51
8262.39
8278.42
8251.92
8316.45
8376.85
8430.35
8475.75
8515.43
8173.59
8132.75
8148.88
8230.85
8283.17
8284.19
8278.41
8262.98
8267.71
8176.73
8089.17
8011.88
8000.17
8012.87
8001.5
7967.88
7972.99
8011.12
8041.34
8070.41
8081.24
8041.89
7995.23
7927.53
7874.52
7839.68
7834.14
7856.48
7870.55
7892.1
7930.78
7984.34
8058.66
8084.96
8151.43
8225.61
8266.52
8306.61
8369.39
8398.43
8440.93
8479.51
8526.34
8558.82
8586.14
8610.95
8621.34
8632.3
8641.27
8632.73
8622.29
8598.55
8573.35
8543.07
8526.16
8503.32
8468.03
8436.93
8441.24
8467.38
8492.58
8554.77
8602.1
8636.03
8643.62
8625.36
8599.39
8538.56
8469.48
8391.88
8310.56
8236.5
8184.8
8197.05
8241.21
8271.55
8261.72
8215.62
8177.58
8170.02
8169.7
8143.82
8124.69
8103.63
8095.7
8122.83
8062.99
8074.53
8105.08
8146.28
8196.68
8258.76
8302.02
8354.54
8417.57
8482.9
8468.42
8526.49
8560.45
8593.06
8060.82
8078.85
8099.71
8199.25
8215.93
8249.24
8311.71
8303.28
8276.22
8237.46
8125.86
7914.75
8011.46
8036.99
8030.22
7988.66
7969.34
7962.47
7964.62
7954.15
7934.5
7897.49
7852.14
7817.82
7801.09
7769.49
7739.27
7768.73
7820.09
7849.36
7895.06
7954.55
7972.62
8025.94
8140.73
8208.46
8264.19
8283.35
8352.35
8411.97
8431.99
8484.13
8535.44
8591.61
8587.47
8608.33
8652.33
8717.92
8633.8
8626.87
8614.75
8575.96
8536.61
8558.67
8570.57
8555.72
8547.28
8488.42
8562.29
8582.06
8621.35
8658.62
8692.77
8716.32
8709.27
8685.45
8646.85
8588.76
8511.22
8425.93
8338.72
8266.97
8213.42
8211.2
8230.74
8244.61
8245.58
8207.27
8197.41
8161.9
8172.11
8158.75
8142.27
8123.89
8117.38
8142.5
8083.78
8128.65
8158.83
8165.26
8214.99
8255.37
8319.81
8385.81
8450.89
8512.05
8525.26
8588.76
8618.19
8626.22
8055.13
8080.55
8109.07
8140.79
8233.38
8259.33
8287.62
8321.03
8353.15
8316.33
8214.61
8103.09
8088.93
8017.19
8055.19
8018.79
7964.77
7925.2
7877.45
7829.29
7780.44
7741.0
7736.34
7714.19
7696.21
7660.58
7671.49
7682.8
7773.3
7811.21
7864.47
7862.34
7946.19
8027.84
8134.96
8199.27
8276.74
8313.55
8366.44
8423.14
8481.81
8546.2
8610.51
8662.62
8696.3
8729.72
8746.44
8730.63
8715.33
8677.58
8662.51
8553.78
8519.77
8483.88
8520.78
8512.29
8525.64
8530.86
8566.04
8623.67
8692.11
8727.74
8753.97
8762.02
8781.91
8750.41
8704.7
8640.63
8556.04
8465.77
8376.67
8311.83
8256.85
8237.32
8233.35
8232.16
8240.78
8206.86
8207.74
8193.98
8218.23
8211.09
8209.26
8204.86
8167.41
8192.29
8143.4
8205.9
8230.45
8264.13
8281.51
8334.16
8390.09
8447.24
8503.29
8549.44
8597.26
8634.04
8686.43
8714.65
8112.01
8066.84
8098.35
8134.25
8175.21
8222.04
8381.82
8412.6
8426.28
8404.46
8303.38
8214.71
8132.45
8070.31
8089.9
8032.87
7966.09
7875.29
7787.36
7696.69
7633.65
7595.81
7577.87
7573.76
7556.99
7561.68
7573.72
7648.08
7731.06
7720.24
7795.47
7858.29
7944.41
8068.58
8132.68
8204.22
8280.69
8335.35
8385.02
8457.77
8498.87
8559.43
8618.65
8672.61
8724.71
8755.31
8768.07
8754.19
8712.31
8686.48
8652.98
8605.21
8493.79
8531.42
8528.54
8531.79
8570.13
8599.99
8632.65
8657.33
8701.25
8761.14
8827.06
8826.5
8848.8
8819.56
8758.73
8689.04
8598.78
8504.79
8436.21
8351.7
8299.17
8272.4
8255.83
8240.8
8221.89
8190.68
8199.17
8189.62
8205.86
8200.52
8206.37
8207.78
8207.62
8245.13
8204.63
8219.15
8209.56
8248.0
8292.73
8342.53
8395.8
8450.74
8505.29
8557.08
8603.56
8642.93
8676.63
8788.33
8154.42
8121.88
8085.82
8125.2
8170.76
8224.0
8385.19
8427.98
8471.86
8460.75
8357.63
8248.85
8174.82
8104.23
8093.04
8034.29
7955.44
